File: Test_XRD/02_Sample 2_XRD001/baseline/02_Sample 2_XRD001_basecorr.csv
4.5;162;142.86;19.1403
4.695;155;145.082;9.91763
4.89;161;147.303;13.6971
5.085;161;149.512;11.4883
5.28;166;151.695;14.3052
5.475;172;153.837;18.1634
5.67;155;155.902;-0.901688
5.865;174;157.836;16.1638
6.06;166;159.582;6.41766
6.255;214;161.078;52.9216
6.45;232;162.257;69.7433
6.645;226;163.05;62.9498
6.84;454;163.393;290.607
7.035;1225;163.224;1061.78
7.23;5688;162.49;5525.51
7.425;398;161.18;236.82
7.62;889;159.346;729.654
7.815;3246;157.06;3088.94
8.01;216;154.424;61.5759
8.205;172;151.575;20.4254
8.4;167;148.657;18.3426
8.595;138;145.817;-7.81704
8.79;155;143.177;11.8227
8.985;161;140.805;20.1949
9.18;152;138.735;13.2654
9.375;139;136.978;2.02186
9.57;153;135.523;17.4769
9.765;166;134.348;31.6516
9.96;248;133.432;114.568
10.155;291;132.751;158.249
10.35;282;132.286;149.714
10.545;184;132.023;51.9767
10.74;278;131.951;146.049
10.935;217;132.06;84.9401
11.13;171;132.346;38.6541
11.325;171;132.808;38.1919
11.52;151;133.447;17.5527
11.715;148;134.264;13.7359
11.91;162;135.245;26.7554
12.105;178;136.362;41.6384
12.3;176;137.588;38.4117
12.495;175;138.899;36.1009
12.69;307;140.27;166.73
12.885;523;141.678;381.322
13.08;178;143.106;34.8941
13.275;234;144.542;89.4584
13.47;401;145.976;255.024
13.665;778;147.404;630.596
13.86;229;148.826;80.1743
14.055;164;150.249;13.7511
14.25;203;151.685;51.3146
14.445;239;153.148;85.8523
14.64;153;154.65;-1.64978
14.835;178;156.194;21.8061
15.03;656;157.749;498.251
15.225;211;159.28;51.72
15.42;374;160.76;213.24
15.615;226;162.168;63.8319
15.81;490;163.485;326.515
16.005;524;164.695;359.305
16.2;224;165.789;58.2108
16.395;641;166.766;474.234
16.59;883;167.626;715.374
16.785;236;168.387;67.6127
16.98;274;169.082;104.918
17.175;256;169.75;86.2497
17.37;191;170.434;20.5655
17.565;176;171.178;4.82189
17.76;230;171.978;58.0222
17.955;203;172.767;30.2328
18.15;399;173.474;225.526
18.345;1113;174.03;938.97
18.54;327;174.373;152.627
18.735;468;174.464;293.536
18.93;712;174.271;537.729
19.125;247;173.771;73.229
19.32;197;172.956;24.0444
19.515;219;171.818;47.1823
19.71;287;170.348;116.652
19.905;1332;168.539;1163.46
20.1;571;166.388;404.612
20.295;407;163.914;243.086
20.49;374;161.144;212.856
20.685;295;158.118;136.882
20.88;605;154.879;450.121
21.075;316;151.481;164.519
21.27;480;147.987;332.013
21.465;501;144.463;356.537
21.66;305;140.99;164.01
21.855;375;137.654;237.346
22.05;238;134.551;103.449
22.245;137;131.78;5.22011
22.44;126;129.443;-3.44286
22.635;116;127.64;-11.6396
22.83;135;126.427;8.57252
23.025;132;125.77;6.2299
23.22;147;125.6;21.3999
23.415;159;125.848;33.1521
23.61;148;126.444;21.5556
23.805;191;127.322;63.6784
24;370;128.412;241.588
24.195;243;129.651;113.349
24.39;255;130.979;124.021
24.585;800;132.337;667.663
24.78;352;133.674;218.326
24.975;348;134.949;213.051
25.17;213;136.126;76.8739
25.365;195;137.175;57.8247
25.56;246;138.068;107.932
25.755;327;138.78;188.22
25.95;248;139.286;108.714
26.145;178;139.57;38.4303
26.34;239;139.618;99.3824
26.535;252;139.418;112.582
26.73;300;138.961;161.039
26.925;315;138.242;176.758
27.12;289;137.263;151.737
27.315;334;136.033;197.967
27.51;386;134.563;251.437
27.705;384;132.873;251.127
27.9;192;130.995;61.005
28.095;172;128.963;43.0366
28.29;193;126.817;66.1829
28.485;176;124.596;51.4043
28.68;183;122.34;60.6596
28.875;146;120.094;25.9062
29.07;168;117.9;50.1002
29.265;140;115.804;24.1964
29.46;126;113.851;12.1487
29.655;136;112.09;23.9103
29.85;109;110.565;-1.56549
30.045;133;109.309;23.6913
30.24;138;108.317;29.6832
30.435;220;107.574;112.426
30.63;156;107.056;48.9441
30.825;133;106.738;26.2617
31.02;191;106.599;84.4009
31.215;172;106.617;65.3833
31.41;153;106.772;46.2285
31.605;150;107.046;42.9544
31.8;167;107.422;59.5775
31.995;211;107.887;103.113
32.19;142;108.426;33.5735
32.385;186;109.029;76.9709
32.58;149;109.685;39.3146
32.775;137;110.388;26.6124
32.97;144;111.129;32.871
33.165;249;111.904;137.096
33.36;162;112.707;49.2934
33.555;181;113.536;67.4642
33.75;146;114.391;31.6091
33.945;154;115.273;38.7266
34.14;163;116.185;46.8148
34.335;164;117.126;46.8745
34.53;183;118.094;64.9065
34.725;146;119.09;26.9104
34.92;123;120.115;2.88465
35.115;132;121.164;10.8365
35.31;200;122.217;77.7834
35.505;167;123.253;43.7472
35.7;149;124.251;24.7486
35.895;191;125.193;65.8069
36.09;189;126.06;62.9397
36.285;279;126.837;152.163
36.48;280;127.508;152.492
36.675;187;128.063;58.9371
36.87;158;128.496;29.5039
37.065;170;128.803;41.197
37.26;185;128.981;56.0192
37.455;173;129.028;43.9724
37.65;186;128.944;57.0562
37.845;186;128.731;57.2688
38.04;178;128.393;49.6067
38.235;207;127.935;79.0651
38.43;174;127.363;46.6366
38.625;152;126.688;25.3123
38.82;179;125.919;53.0812
39.015;206;125.069;80.9314
39.21;143;124.151;18.8492
39.405;125;123.18;1.82022
39.6;149;122.163;26.8367
39.795;160;121.103;38.8966
39.99;147;120.003;26.9969
40.185;140;118.866;21.134
40.38;159;117.697;41.303
40.575;164;116.502;47.4985
40.77;150;115.286;34.7139
40.965;144;114.059;29.9411
41.16;140;112.829;27.1706
41.355;181;111.607;69.3929
41.55;156;110.394;45.6059
41.745;137;109.19;27.8101
41.94;152;107.995;44.0051
42.135;150;106.811;43.189
42.33;182;105.641;76.3591
42.525;137;104.489;32.5114
42.72;145;103.36;41.6405
42.915;189;102.252;86.7478
43.11;139;101.158;37.8422
43.305;153;100.069;52.9311
43.5;176;98.9793;77.0207
43.695;128;97.8846;30.1154
43.89;121;96.7818;24.2182
44.085;130;95.6692;34.3308
44.28;121;94.5462;26.4538
44.475;155;93.4132;61.5868
44.67;139;92.2716;46.7284
44.865;100;91.124;8.87601
45.06;123;89.974;33.026
45.255;125;88.8261;36.1739
45.45;138;87.6852;50.3148
45.645;120;86.5572;33.4428
45.84;107;85.4488;21.5512
46.035;121;84.3675;36.6325
46.23;95;83.3212;11.6788
46.425;97;82.3187;14.6813
46.62;78;81.3692;-3.36916
46.815;87;80.481;6.51901
47.01;112;79.6574;32.3426
47.205;102;78.8988;23.1012
47.4;117;78.2054;38.7946
47.595;101;77.5787;23.4213
47.79;97;77.0206;19.9794
47.985;110;76.5339;33.4661
48.18;118;76.1222;41.8778
48.375;101;75.7898;25.2102
48.57;102;75.5419;26.4581
48.765;81;75.3842;5.61575
48.96;94;75.3216;18.6784
49.155;122;75.347;46.653
49.35;99;75.4485;23.5515
49.545;106;75.6152;30.3848
49.74;103;75.8367;27.1633
49.935;106;76.1036;29.8964
50.13;124;76.4071;47.5929
50.325;108;76.7391;31.2609
50.52;81;77.0926;3.90736
50.715;97;77.4615;19.5385
50.91;117;77.8402;39.1598
51.105;110;78.2221;31.7779
51.3;111;78.599;32.401
51.495;93;78.9635;14.0365
51.69;120;79.3086;40.6914
51.885;124;79.6283;44.3717
52.08;101;79.9176;21.0824
52.275;98;80.1723;17.8277
52.47;134;80.3896;53.6104
52.665;110;80.5674;29.4326
52.86;94;80.7046;13.2954
53.055;114;80.8011;33.1989
53.25;112;80.8577;31.1423
53.445;107;80.8758;26.1242
53.64;115;80.8577;34.1423
53.835;110;80.8061;29.1939
54.03;127;80.7247;46.2753
54.225;103;80.618;22.382
54.42;84;80.4912;3.50884
54.615;83;80.3503;2.64968
54.81;99;80.2018;18.7982
55.005;100;80.0518;19.9482
55.2;103;79.9046;23.0954
55.395;91;79.7622;11.2378
55.59;106;79.6232;26.3768
55.785;94;79.4813;14.5187
55.98;122;79.3304;42.6696
56.175;109;79.1649;29.8351
56.37;103;78.9803;24.0197
56.565;112;78.7725;33.2275
56.76;87;78.5381;8.46194
56.955;93;78.2739;14.7261
57.15;113;77.9776;35.0224
57.345;102;77.6469;24.3531
57.54;98;77.28;20.72
57.735;104;76.8759;27.1241
57.93;88;76.4344;11.5656
58.125;89;75.9559;13.0441
58.32;95;75.4412;19.5588
58.515;85;74.8918;10.1082
58.71;91;74.3095;16.6905
58.905;96;73.6969;22.3031
59.1;104;73.0567;30.9433
59.295;103;72.3924;30.6076
59.49;95;71.7078;23.2922
59.685;96;71.0075;24.9925
59.88;89;70.2968;18.7032
60.075;100;69.5813;30.4187
60.27;81;68.8648;12.1352
60.465;78;68.1481;9.85195
60.66;85;67.431;17.569
60.765;88;67.0449;20.9551