File: XRD/Test_XRD/01_Sample 1_XRD001/baseline/01_Sample 1_XRD001_basecorr.csv
4.5;169;150.607;18.393
4.695;187;151.708;35.2917
4.89;175;152.81;22.1901
5.085;173;153.912;19.088
5.28;175;155.013;19.987
5.475;158;156.112;1.88849
5.67;170;157.207;12.7929
5.865;171;158.3;12.7005
6.06;176;159.388;16.6118
6.255;169;160.456;8.54419
6.45;165;161.461;3.53884
6.645;196;162.345;33.6547
6.84;321;163.02;157.98
7.035;1066;163.392;902.608
7.23;7232;163.375;7068.62
7.425;320;162.927;157.073
7.62;796;162.072;633.928
7.815;4072;160.86;3911.14
8.01;241;159.366;81.6345
8.205;166;157.708;8.29155
8.4;164;156.011;7.98927
8.595;176;154.372;21.6285
8.79;160;152.848;7.15245
8.985;150;151.462;-1.46172
9.18;184;150.232;33.7675
9.375;181;149.173;31.8267
9.57;166;148.293;17.7074
9.765;188;147.576;40.4237
9.96;249;147.001;101.999
10.155;331;146.545;184.455
10.35;270;146.191;123.809
10.545;191;145.925;45.0746
10.74;314;145.74;168.26
10.935;204;145.627;58.3733
11.13;174;145.586;28.4142
11.325;179;145.62;33.3804
11.52;154;145.732;8.26808
11.715;150;145.923;4.07654
11.91;161;146.188;14.8122
12.105;193;146.508;46.492
12.3;185;146.859;38.1412
12.495;188;147.214;40.786
12.69;355;147.549;207.451
12.885;675;147.84;527.16
13.08;197;148.069;48.9311
13.275;238;148.226;89.7737
13.47;442;148.305;293.695
13.665;866;148.3;717.7
13.86;191;148.215;42.7852
14.055;174;148.061;25.9389
14.25;204;147.849;56.1513
14.445;233;147.581;85.4193
14.64;136;147.261;-11.261
14.835;187;146.891;40.1091
15.03;769;146.454;622.546
15.225;179;145.933;33.0666
15.42;471;145.322;325.678
15.615;236;144.619;91.3814
15.81;523;143.827;379.173
16.005;486;142.955;343.045
16.2;184;142.016;41.9837
16.395;738;141.032;596.968
16.59;1109;140.028;968.972
16.785;208;139.046;68.9538
16.98;264;138.152;125.848
17.175;266;137.416;128.584
17.37;150;136.913;13.0868
17.565;131;136.721;-5.72055
17.76;190;136.868;53.1317
17.955;146;137.279;8.72147
18.15;405;137.85;267.15
18.345;1278;138.482;1139.52
18.54;306;139.088;166.912
18.735;463;139.604;323.396
18.93;695;139.976;555.024
19.125;248;140.163;107.837
19.32;171;140.136;30.8644
19.515;180;139.871;40.1287
19.71;222;139.349;82.6507
19.905;1719;138.549;1580.45
20.1;501;137.459;363.541
20.295;443;136.087;306.913
20.49;380;134.457;245.543
20.685;267;132.6;134.4
20.88;676;130.556;545.444
21.075;289;128.373;160.627
21.27;550;126.11;423.89
21.465;571;123.832;447.168
21.66;265;121.618;143.382
21.855;480;119.555;360.445
22.05;233;117.741;115.259
22.245;140;116.277;23.7229
22.44;108;115.269;-7.26949
22.635;120;114.806;5.1937
22.83;116;114.886;1.11401
23.025;132;115.45;16.5503
23.22;129;116.427;12.5733
23.415;161;117.747;43.2532
23.61;139;119.341;19.6591
23.805;173;121.141;51.8591
24;489;123.08;365.92
24.195;226;125.092;100.908
24.39;234;127.119;106.881
24.585;1083;129.103;953.897
24.78;347;130.995;216.005
24.975;402;132.756;269.244
25.17;186;134.355;51.6452
25.365;187;135.765;51.2353
25.56;244;136.962;107.038
25.755;313;137.924;175.076
25.95;247;138.632;108.368
26.145;187;139.074;47.9263
26.34;224;139.238;84.7615
26.535;213;139.119;73.881
26.73;321;138.709;182.291
26.925;303;138.008;164.992
27.12;264;137.022;126.978
27.315;309;135.765;173.235
27.51;352;134.253;217.747
27.705;449;132.513;316.487
27.9;171;130.582;40.418
28.095;188;128.504;59.4958
28.29;201;126.326;74.6741
28.485;208;124.095;83.9053
28.68;198;121.859;76.1405
28.875;135;119.671;15.329
29.07;203;117.58;85.4201
29.265;135;115.631;19.3691
29.46;129;113.867;15.133
29.655;128;112.33;15.6699
29.85;126;111.041;14.9592
30.045;126;109.995;16.005
30.24;120;109.171;10.8293
30.435;252;108.543;143.457
30.63;195;108.087;86.9127
30.825;116;107.782;8.21789
31.02;209;107.607;101.393
31.215;192;107.542;84.4578
31.41;182;107.571;74.4293
31.605;133;107.678;25.3225
31.8;170;107.849;62.1505
31.995;216;108.075;107.925
32.19;156;108.344;47.6559
32.385;197;108.65;88.35
32.58;134;108.987;25.0131
32.775;121;109.351;11.6489
32.97;155;109.74;45.2601
33.165;241;110.152;130.848
33.36;195;110.585;84.4147
33.555;170;111.043;58.9566
33.75;166;111.53;54.4701
33.945;115;112.051;2.94878
34.14;160;112.615;47.3852
34.335;186;113.229;72.7709
34.53;182;113.903;68.0968
34.725;163;114.648;48.3515
34.92;111;115.478;-4.47839
35.115;127;116.405;10.5947
35.31;182;117.421;64.5793
35.505;172;118.495;53.5052
35.7;169;119.598;49.402
35.895;160;120.703;39.2968
36.09;207;121.785;85.2153
36.285;257;122.819;134.181
36.48;348;123.784;224.216
36.675;181;124.663;56.3374
36.87;166;125.443;40.5568
37.065;163;126.116;36.8843
37.26;197;126.671;70.3288
37.455;174;127.102;46.8976
37.65;159;127.404;31.5963
37.845;182;127.572;54.4282
38.04;170;127.604;42.3958
38.235;226;127.5;98.4996
38.43;177;127.262;49.7378
38.625;161;126.893;34.1065
38.82;218;126.399;91.6006
39.015;181;125.786;55.2136
39.21;141;125.063;15.9375
39.405;142;124.237;17.7626
39.6;178;123.321;54.6787
39.795;164;122.325;41.6749
39.99;137;121.261;15.7392
40.185;155;120.142;34.8584
40.38;147;118.982;28.018
40.575;171;117.797;53.2028
40.77;183;116.603;66.3965
40.965;154;115.419;38.5813
41.16;126;114.262;11.738
41.355;152;113.14;38.8602
41.55;190;112.041;77.959
41.745;165;110.954;54.0459
41.94;159;109.869;49.1306
42.135;167;108.778;58.2216
42.33;184;107.674;76.3261
42.525;136;106.55;29.4497
42.72;135;105.403;29.5967
42.915;217;104.23;112.77
43.11;130;103.028;26.9723
43.305;178;101.797;76.2031
43.5;141;100.538;40.4616
43.695;162;99.2553;62.7447
43.89;142;97.9519;44.0481
44.085;139;96.634;42.366
44.28;123;95.3086;27.6914
44.475;149;93.9833;55.0167
44.67;138;92.6672;45.3328
44.865;104;91.3705;12.6295
45.06;119;90.1046;28.8954
45.255;112;88.8816;23.1184
45.45;133;87.71;45.29
45.645;126;86.5955;39.4045
45.84;101;85.5449;15.4551
46.035;109;84.5655;24.4345
46.23;87;83.6598;3.34017
46.425;89;82.8274;6.1726
46.62;82;82.068;-0.0680117
46.815;93;81.3815;11.6185
47.01;91;80.7655;10.2345
47.205;106;80.2169;25.7831
47.4;126;79.733;46.267
47.595;101;79.3124;21.6876
47.79;92;78.9544;13.0456
47.985;97;78.6592;18.3408
48.18;102;78.4276;23.5724
48.375;102;78.2612;23.7388
48.57;75;78.1621;-3.16209
48.765;102;78.1313;23.8687
48.96;96;78.1637;17.8363
49.155;108;78.2533;29.7467
49.35;112;78.3944;33.6056
49.545;102;78.5822;23.4178
49.74;104;78.8126;25.1874
49.935;89;79.0824;9.91761
50.13;111;79.3864;31.6136
50.325;124;79.7163;44.2837
50.52;91;80.0643;10.9357
50.715;93;80.4236;12.5764
50.91;101;80.7867;20.2133
51.105;108;81.145;26.855
51.3;105;81.4905;23.5095
51.495;93;81.8158;11.1842
51.69;102;82.1146;19.8854
51.885;134;82.3811;51.6189
52.08;131;82.6105;48.3895
52.275;116;82.799;33.201
52.47;129;82.9443;46.0557
52.665;113;83.0446;29.9554
52.86;100;83.0993;16.9007
53.055;130;83.1088;46.8912
53.25;107;83.0741;23.9259
53.445;110;82.9968;27.0032
53.64;102;82.8791;19.1209
53.835;112;82.7241;29.2759
54.03;120;82.5358;37.4642
54.225;113;82.319;30.681
54.42;89;82.0796;6.92035
54.615;111;81.8231;29.1769
54.81;111;81.5513;29.4487
55.005;84;81.265;2.73505
55.2;82;80.9656;1.03437
55.395;111;80.6531;30.3469
55.59;106;80.3235;25.6765
55.785;95;79.9727;15.0273
55.98;121;79.5973;41.4027
56.175;93;79.1948;13.8052
56.37;93;78.7638;14.2362
56.565;112;78.3031;33.6969
56.76;107;77.8121;29.1879
56.955;98;77.2906;20.7094
57.15;105;76.7391;28.2609
57.345;119;76.1586;42.8414
57.54;111;75.5507;35.4493
57.735;106;74.9179;31.0821
57.93;96;74.2635;21.7365
58.125;98;73.5904;24.4096
58.32;105;72.8982;32.1018
58.515;88;72.1868;15.8132
58.71;87;71.4568;15.5432
58.905;85;70.7097;14.2903
59.1;113;69.9474;43.0526
59.295;92;69.1723;22.8277
59.49;105;68.3881;36.6119
59.685;82;67.5986;14.4014
59.88;78;66.809;11.191
60.075;75;66.0237;8.97629
60.27;92;65.2421;26.7579
60.465;86;64.4625;21.5375
60.66;78;63.6834;14.3166
60.765;82;63.264;18.736