File: XRD/Test_XRD/02_Sample 2_XRD001/normal/02_Sample 2_XRD001_basecorr_normal.csv
4.5;162;142.86;19.1403;0.028481;0.003464
4.77;148;145.937;2.06299;0.0260197;0.000373357
5.04;161;149.004;11.9963;0.0283052;0.00217107
5.31;150;152.028;-2.0275;0.0263713;-0.000366935
5.58;179;154.961;24.0386;0.0314698;0.00435048
5.85;174;157.693;16.3066;0.0305907;0.00295116
6.12;196;160.072;35.9276;0.0344585;0.00650213
6.39;212;161.932;50.068;0.0372714;0.00906124
6.66;267;163.093;103.907;0.0469409;0.0188049
6.93;658;163.382;494.618;0.115682;0.0895153
7.2;4438;162.641;4275.36;0.780239;0.773749
7.47;426;160.801;265.199;0.0748945;0.0479954
7.74;2031;157.987;1873.01;0.357068;0.338976
8.01;216;154.424;61.5759;0.0379747;0.0111439
8.28;161;150.453;10.5473;0.0283052;0.00190884
8.55;153;146.458;6.54173;0.0268987;0.00118391
8.82;154;142.794;11.2062;0.0270745;0.00202808
9.09;148;139.651;8.34863;0.0260197;0.00151092
9.36;138;137.102;0.897713;0.0242616;0.000162467
9.63;150;135.133;14.8672;0.0263713;0.00269065
9.9;185;133.688;51.3123;0.0325246;0.00928643
10.17;285;132.708;152.292;0.0501055;0.0275617
10.44;210;132.141;77.8595;0.0369198;0.0140909
10.71;304;131.95;172.05;0.0534459;0.0311374
10.98;215;132.11;82.8898;0.0377989;0.0150013
11.25;166;132.609;33.3905;0.0291842;0.00604298
11.52;151;133.447;17.5527;0.0265471;0.00317667
11.79;155;134.623;20.3767;0.0272504;0.00368775
12.06;159;136.093;22.9069;0.0279536;0.00414566
12.33;158;137.785;20.2149;0.0277778;0.00365847
12.6;216;139.631;76.3688;0.0379747;0.0138211
12.87;621;141.569;479.431;0.109177;0.0867668
13.14;199;143.547;55.4527;0.0349859;0.0100358
13.41;368;145.535;222.465;0.0646976;0.0402614
13.68;802;147.514;654.486;0.140999;0.118448
13.95;168;149.482;18.5183;0.0295359;0.00335142
14.22;193;151.463;41.5369;0.0339311;0.0075173
14.49;233;153.49;79.5097;0.0409634;0.0143896
14.76;158;155.597;2.40337;0.0277778;0.000434958
15.03;656;157.749;498.251;0.115331;0.0901729
15.3;237;159.857;77.1435;0.0416667;0.0139613
15.57;201;161.851;39.1494;0.0353376;0.00708521
15.84;493;163.678;329.322;0.0866737;0.0596002
16.11;214;165.299;48.7014;0.0376231;0.00881391
16.38;570;166.695;403.305;0.100211;0.0729897
16.65;668;167.87;500.13;0.11744;0.090513
16.92;246;168.873;77.1268;0.0432489;0.0139583
17.19;228;169.802;58.1982;0.0400844;0.0105326
17.46;160;170.768;-10.7681;0.0281294;-0.0019488
17.73;210;171.854;38.1464;0.0369198;0.00690368
18;234;172.94;61.0597;0.0411392;0.0110505
18.27;964;173.838;790.162;0.16948;0.143003
18.54;327;174.373;152.627;0.0574895;0.0276222
18.81;750;174.425;575.575;0.131857;0.104167
19.08;307;173.914;133.086;0.0539733;0.0240857
19.35;215;172.802;42.1983;0.0377989;0.00763699
19.62;233;171.068;61.9318;0.0409634;0.0112083
19.89;1265;168.69;1096.31;0.222398;0.198409
20.16;447;165.66;281.34;0.0785865;0.0509165
20.43;409;162.026;246.974;0.0719058;0.0446971
20.7;310;157.875;152.125;0.0545007;0.0275313
20.97;357;153.327;203.673;0.0627637;0.0368605
21.24;636;148.528;487.472;0.111814;0.0882221
21.51;668;143.654;524.346;0.11744;0.0948955
21.78;358;138.915;219.085;0.0629395;0.0396498
22.05;238;134.551;103.449;0.0418425;0.0187221
22.32;150;130.824;19.1759;0.0263713;0.00347044
22.59;134;128.004;5.99611;0.0235584;0.00108517
22.86;147;126.292;20.7081;0.0258439;0.00374773
23.13;161;125.622;35.3776;0.0283052;0.00640259
23.4;167;125.816;41.1844;0.0293601;0.0074535
23.67;164;126.688;37.3124;0.0288326;0.00675276
23.94;295;128.058;166.942;0.0518636;0.030213
24.21;207;129.751;77.2489;0.0363924;0.0139804
24.48;390;131.605;258.395;0.0685654;0.046764
24.75;280;133.472;146.528;0.0492264;0.0265185
25.02;293;135.23;157.77;0.051512;0.0285529
25.29;207;136.789;70.2113;0.0363924;0.0127068
25.56;246;138.068;107.932;0.0432489;0.0195333
25.83;504;139;365;0.0886076;0.0660573
26.1;185;139.525;45.4753;0.0325246;0.00823006
26.37;229;139.603;89.3968;0.0402602;0.0161789
26.64;632;139.204;492.796;0.111111;0.0891856
26.91;299;138.306;160.694;0.0525668;0.0290822
27.18;244;136.911;107.089;0.0428973;0.0193808
27.45;638;135.039;502.961;0.112166;0.0910252
27.72;370;132.735;237.265;0.0650492;0.0429399
27.99;179;130.074;48.9259;0.0314698;0.00885456
28.26;193;127.153;65.8468;0.0339311;0.0119169
28.53;142;124.077;17.9233;0.0249648;0.00324374
28.8;145;120.954;24.046;0.0254923;0.00435181
29.07;168;117.9;50.1002;0.0295359;0.00906707
29.34;133;115.033;17.9669;0.0233826;0.00325162
29.61;146;112.477;33.5232;0.0256681;0.00606699
29.88;134;110.355;23.6454;0.0235584;0.00427932
30.15;116;108.742;7.25773;0.0203938;0.00131349
30.42;200;107.623;92.377;0.0351617;0.0167183
30.69;139;106.938;32.0622;0.0244374;0.00580257
30.96;156;106.624;49.3758;0.0274262;0.00893597
31.23;162;106.624;55.376;0.028481;0.0100219
31.5;184;106.884;77.1158;0.0323488;0.0139563
31.77;145;107.358;37.6416;0.0254923;0.00681233
32.04;186;108.005;77.9945;0.0327004;0.0141154
32.31;186;108.79;77.2096;0.0327004;0.0139733
32.58;149;109.685;39.3146;0.0261955;0.00711511
32.85;112;110.668;1.33156;0.0196906;0.000240983
33.12;191;111.722;79.2778;0.0335795;0.0143476
33.39;155;112.832;42.1675;0.0272504;0.00763142
33.66;174;113.993;60.0071;0.0305907;0.01086
33.93;143;115.204;27.7955;0.0251406;0.0050304
34.2;159;116.472;42.5285;0.0279536;0.00769675
34.47;168;117.793;50.2073;0.0295359;0.00908645
34.74;165;119.167;45.8326;0.0290084;0.00829472
35.01;129;120.597;8.4028;0.0226793;0.00152073
35.28;186;122.055;63.9448;0.0327004;0.0115727
35.55;195;123.487;71.5126;0.0342827;0.0129423
35.82;141;124.839;16.1612;0.024789;0.00292483
36.09;189;126.06;62.9397;0.0332278;0.0113907
36.36;321;127.108;193.892;0.0564346;0.0350904
36.63;222;127.945;94.0546;0.0390295;0.0170219
36.9;152;128.552;23.4484;0.0267229;0.00424366
37.17;164;128.915;35.0851;0.0288326;0.00634965
37.44;167;129.029;37.9713;0.0293601;0.006872
37.71;174;128.892;45.108;0.0305907;0.00816359
37.98;208;128.51;79.4896;0.0365682;0.0143859
38.25;213;127.895;85.1051;0.0374473;0.0154022
38.52;198;127.064;70.9362;0.0348101;0.0128379
38.79;173;126.043;46.9573;0.0304149;0.00849828
39.06;199;124.862;74.1377;0.0349859;0.0134174
39.33;142;123.559;18.4412;0.0249648;0.00333747
39.6;149;122.163;26.8367;0.0261955;0.00485688
39.87;143;120.685;22.3152;0.0251406;0.00403858
40.14;126;119.131;6.86857;0.0221519;0.00124306
40.41;157;117.515;39.4853;0.027602;0.00714601
40.68;165;115.849;49.1509;0.0290084;0.00889527
40.95;134;114.154;19.8464;0.0235584;0.00359179
41.22;110;112.452;-2.45221;0.019339;-0.000443799
41.49;174;110.766;63.2336;0.0305907;0.0114439
41.76;140;109.098;30.9024;0.0246132;0.00559268
42.03;146;107.447;38.553;0.0256681;0.00697727
42.3;162;105.82;56.1801;0.028481;0.0101674
42.57;140;104.226;35.7742;0.0246132;0.00647437
42.84;183;102.676;80.3239;0.032173;0.0145369
43.11;139;101.158;37.8422;0.0244374;0.00684863
43.38;139;99.6502;39.3498;0.0244374;0.00712148
43.65;145;98.1379;46.8621;0.0254923;0.00848105
43.92;125;96.6113;28.3887;0.0219761;0.00513776
44.19;102;95.0658;6.93425;0.0179325;0.00125495
44.46;162;93.5007;68.4993;0.028481;0.0123969
44.73;121;91.919;29.081;0.0212729;0.00526305
45;110;90.3279;19.6721;0.019339;0.00356024
45.27;133;88.738;44.262;0.0233826;0.00801047
45.54;133;87.1626;45.8374;0.0233826;0.00829559
45.81;93;85.6178;7.38225;0.0163502;0.00133603
46.08;111;84.1226;26.8774;0.0195148;0.00486424
46.35;84;82.6985;1.30148;0.0147679;0.000235541
46.62;78;81.3692;-3.36916;0.0137131;-0.000609746
46.89;109;80.1566;28.8434;0.0191632;0.00522005
47.16;105;79.0681;25.9319;0.0184599;0.00469313
47.43;117;78.1046;38.8954;0.0205696;0.00703924
47.7;111;77.2695;33.7305;0.0195148;0.00610451
47.97;127;76.5687;50.4313;0.0223277;0.00912699
48.24;99;76.0113;22.9887;0.0174051;0.00416047
48.51;96;75.6088;20.3912;0.0168776;0.00369037
48.78;76;75.376;0.623957;0.0133615;0.000112923
49.05;100;75.3231;24.6769;0.0175809;0.00446599
49.32;116;75.4284;40.5716;0.0203938;0.0073426
49.59;108;75.6618;32.3382;0.0189873;0.00585253
49.86;106;75.9962;30.0038;0.0186357;0.00543005
50.13;124;76.4071;47.5929;0.0218003;0.0086133
50.4;98;76.8729;21.1271;0.0172293;0.00382356
50.67;104;77.3753;26.6247;0.0182841;0.0048185
50.94;99;77.899;21.101;0.0174051;0.00381884
51.21;97;78.4262;18.5738;0.0170534;0.00336147
51.48;93;78.936;14.064;0.0163502;0.00254528
51.75;124;79.4099;44.5901;0.0218003;0.00806985
52.02;101;79.8321;21.1679;0.0177567;0.00383094
52.29;94;80.1904;13.8096;0.016526;0.00249924
52.56;120;80.4767;39.5233;0.021097;0.00715288
52.83;109;80.6862;28.3138;0.0191632;0.0051242
53.1;103;80.8177;22.1823;0.0181083;0.00401453
53.37;95;80.8732;14.1268;0.0167018;0.00255664
53.64;115;80.8577;34.1423;0.020218;0.00617904
53.91;97;80.7781;16.2219;0.0170534;0.00293582
54.18;99;80.6446;18.3554;0.0174051;0.00332194
54.45;91;80.4703;10.5297;0.0159986;0.00190566
54.72;113;80.2709;32.7291;0.0198664;0.00592327
54.99;90;80.0633;9.93671;0.0158228;0.00179833
55.26;78;79.8602;-1.86016;0.0137131;-0.00033665
55.53;92;79.666;12.334;0.0161744;0.0022322
55.8;105;79.4701;25.5299;0.0184599;0.00462037
56.07;98;79.2561;18.7439;0.0172293;0.00339224
56.34;87;79.0101;7.9899;0.0152954;0.001446
56.61;87;78.7209;8.27912;0.0152954;0.00149834
56.88;104;78.3792;25.6208;0.0182841;0.00463682
57.15;113;77.9776;35.0224;0.0198664;0.00633831
57.42;109;77.5101;31.4899;0.0191632;0.005699
57.69;105;76.9725;28.0275;0.0184599;0.00507239
57.96;86;76.3632;9.63681;0.0151195;0.00174406
58.23;99;75.6831;23.3169;0.0174051;0.00421986
58.5;103;74.9352;28.0648;0.0181083;0.00507913
58.77;93;74.1241;18.8759;0.0163502;0.00341613
59.04;91;73.2564;17.7436;0.0159986;0.00321121
59.31;92;72.3404;19.6596;0.0161744;0.00355797
59.58;93;71.3862;21.6138;0.0163502;0.00391163
59.85;81;70.4066;10.5934;0.0142405;0.00191718
60.12;68;69.4159;-1.41594;0.011955;-0.000256254
60.39;89;68.4238;20.5762;0.015647;0.00372386
60.66;85;67.431;17.569;0.0149437;0.00317962
60.765;88;67.0449;20.9551;0.0154712;0.00379243