File: XRD/Test_XRD/03_Sample 3_XRD001/normal/03_Sample 3_XRD001_basecorr_normal.csv
4.5;255;264.252;-9.25193;0.16921;-0.00745917
4.755;296;267.238;28.7624;0.196417;0.0231891
5.01;271;270.088;0.911615;0.179827;0.00073497
5.265;352;272.626;79.3742;0.233577;0.0639937
5.52;406;274.674;131.326;0.269409;0.105879
5.775;465;276.066;188.934;0.30856;0.152324
6.03;566;276.644;289.356;0.375581;0.233287
6.285;748;276.27;471.73;0.49635;0.380322
6.54;853;274.834;578.166;0.566025;0.466134
6.795;1095;272.259;822.741;0.726609;0.663317
7.05;1388;268.524;1119.48;0.921035;0.902553
7.305;1030;263.674;766.326;0.683477;0.617834
7.56;709;257.84;451.16;0.470471;0.363738
7.815;494;251.218;242.782;0.327804;0.195738
8.07;309;244.043;64.9573;0.205043;0.0523704
8.325;276;236.57;39.4302;0.183145;0.0317897
8.58;250;229.064;20.9364;0.165893;0.0168795
8.835;209;221.793;-12.7934;0.138686;-0.0103144
9.09;231;215.018;15.982;0.153285;0.0128851
9.345;249;208.938;40.0617;0.165229;0.0322988
9.6;202;203.68;-1.67974;0.134041;-0.00135425
9.855;230;199.268;30.732;0.152621;0.024777
10.11;233;195.657;37.343;0.154612;0.030107
10.365;218;192.793;25.2074;0.144658;0.0203229
10.62;222;190.624;31.3763;0.147313;0.0252965
10.875;232;189.102;42.8985;0.153948;0.034586
11.13;223;188.18;34.8197;0.147976;0.0280726
11.385;226;187.817;38.1829;0.149967;0.0307841
11.64;227;187.972;39.0277;0.15063;0.0314652
11.895;243;188.609;54.391;0.161248;0.0438515
12.15;236;189.693;46.3067;0.156603;0.0373338
12.405;246;191.195;54.8052;0.163238;0.0441855
12.66;262;193.087;68.9132;0.173855;0.0555598
12.915;280;195.347;84.6532;0.1858;0.0682498
13.17;278;197.958;80.0425;0.184472;0.0645325
13.425;308;200.909;107.091;0.20438;0.0863401
13.68;295;204.197;90.8028;0.195753;0.0732078
13.935;311;207.828;103.172;0.20637;0.0831801
14.19;330;211.815;118.185;0.218978;0.0952844
14.445;231;216.178;14.8215;0.153285;0.0119495
14.7;229;220.948;8.05172;0.151958;0.00649152
14.955;216;226.156;-10.1559;0.143331;-0.008188
15.21;240;231.819;8.18124;0.159257;0.00659594
15.465;268;237.907;30.0929;0.177837;0.0242618
15.72;327;244.314;82.6858;0.216987;0.0666636
15.975;703;250.886;452.114;0.46649;0.364507
16.23;360;257.478;102.522;0.238885;0.0826564
16.485;356;263.967;92.0331;0.236231;0.0741997
16.74;374;270.24;103.76;0.248175;0.0836539
16.995;379;276.194;102.806;0.251493;0.0828851
17.25;388;281.732;106.268;0.257465;0.0856764
17.505;353;286.766;66.2335;0.23424;0.0533993
17.76;383;291.218;91.7818;0.254147;0.0739971
18.015;387;295.015;91.9849;0.256802;0.0741608
18.27;399;298.093;100.907;0.264764;0.0813542
18.525;435;300.395;134.605;0.288653;0.108523
18.78;471;301.872;169.128;0.312541;0.136355
19.035;857;302.488;554.512;0.568679;0.447063
19.29;418;302.227;115.773;0.277372;0.0933396
19.545;397;301.109;95.8906;0.263437;0.0773097
19.8;398;299.17;98.8304;0.264101;0.0796799
20.055;561;296.45;264.55;0.372263;0.213287
20.31;492;293.005;198.995;0.326476;0.160435
20.565;404;288.902;115.098;0.268082;0.0927955
20.82;348;284.226;63.7738;0.230922;0.0514162
21.075;355;279.075;75.9251;0.235567;0.0612129
21.33;331;273.551;57.4486;0.219642;0.0463167
21.585;351;267.765;83.2354;0.232913;0.0671068
21.84;298;261.829;36.1714;0.197744;0.0291624
22.095;284;255.863;28.1367;0.188454;0.0226846
22.35;264;249.993;14.0073;0.175182;0.0112931
22.605;280;244.343;35.6574;0.1858;0.028748
22.86;265;239.029;25.9711;0.175846;0.0209386
23.115;249;234.137;14.8626;0.165229;0.0119826
23.37;231;229.7;1.30045;0.153285;0.00104846
23.625;232;225.688;6.31194;0.153948;0.00508886
23.88;255;222.051;32.949;0.16921;0.0265644
24.135;267;218.732;48.2678;0.177173;0.0389149
24.39;305;215.668;89.3315;0.202389;0.0720216
24.645;348;212.79;135.21;0.230922;0.10901
24.9;336;210.031;125.969;0.22296;0.10156
25.155;274;207.335;66.6646;0.181818;0.0537469
25.41;272;204.657;67.3426;0.180491;0.0542935
25.665;287;201.955;85.0448;0.190445;0.0685655
25.92;310;199.192;110.808;0.205707;0.0893362
26.175;297;196.339;100.661;0.19708;0.0811557
26.43;269;193.373;75.6269;0.1785;0.0609725
26.685;275;190.28;84.7199;0.182482;0.0683036
26.94;335;187.053;147.947;0.222296;0.119279
27.195;259;183.69;75.3103;0.171865;0.0607173
27.45;272;180.2;91.8002;0.180491;0.0740119
27.705;262;176.599;85.4006;0.173855;0.0688524
27.96;245;172.913;72.0874;0.162575;0.0581189
28.215;229;169.171;59.8294;0.151958;0.0482362
28.47;209;165.41;43.5901;0.138686;0.0351435
28.725;182;161.671;20.3286;0.12077;0.0163895
28.98;204;157.999;46.0008;0.135368;0.0370872
29.235;187;154.441;32.5594;0.124088;0.0262503
29.49;190;151.047;38.9529;0.126078;0.0314049
29.745;162;147.873;14.1266;0.107498;0.0113892
30;172;144.977;27.023;0.114134;0.0217867
30.255;155;142.417;12.583;0.102853;0.0101448
30.51;162;140.247;21.753;0.107498;0.0175379
30.765;176;138.49;37.5099;0.116788;0.0302416
31.02;166;137.136;28.8638;0.110153;0.0232708
31.275;154;136.154;17.8464;0.10219;0.0143883
31.53;169;135.503;33.4974;0.112143;0.0270065
31.785;178;135.144;42.8557;0.118115;0.0345515
32.04;167;135.041;31.9585;0.110816;0.0257659
32.295;194;135.159;58.8406;0.128733;0.0474389
32.55;156;135.467;20.5335;0.103517;0.0165547
32.805;171;135.934;35.0658;0.11347;0.0282711
33.06;210;136.537;73.4635;0.13935;0.0592283
33.315;225;137.251;87.7488;0.149303;0.0707455
33.57;160;138.063;21.9374;0.106171;0.0176866
33.825;149;138.962;10.0376;0.0988719;0.0080926
34.08;159;139.946;19.0543;0.105508;0.0153621
34.335;170;141.009;28.9909;0.112807;0.0233733
34.59;143;142.15;0.849656;0.0948905;0.000685017
34.845;180;143.36;36.6396;0.119443;0.0295399
35.1;144;144.622;-0.621529;0.0955541;-0.000501094
35.355;166;145.903;20.0971;0.110153;0.0162029
35.61;183;147.168;35.8317;0.121433;0.0288885
35.865;168;148.383;19.6166;0.11148;0.0158154
36.12;178;149.516;28.4842;0.118115;0.0229648
36.375;189;150.536;38.4644;0.125415;0.0310111
36.63;200;151.416;48.5837;0.132714;0.0391696
36.885;194;152.135;41.8655;0.128733;0.0337531
37.14;171;152.67;18.3301;0.11347;0.0147782
37.395;189;153.005;35.9951;0.125415;0.0290203
37.65;186;153.125;32.8754;0.123424;0.0265051
37.905;181;153.017;27.9829;0.120106;0.0225606
38.16;210;152.674;57.3264;0.13935;0.0462181
38.415;228;152.088;75.9117;0.151294;0.0612022
38.67;208;151.259;56.7407;0.138023;0.0457459
38.925;184;150.19;33.8099;0.122097;0.0272585
39.18;178;148.889;29.1111;0.118115;0.0234702
39.435;163;147.368;15.6318;0.108162;0.0126028
39.69;169;145.644;23.3562;0.112143;0.0188304
39.945;156;143.735;12.2655;0.103517;0.00988876
40.2;154;141.662;12.3384;0.10219;0.00994759
40.455;161;139.448;21.5519;0.106835;0.0173757
40.71;174;137.119;36.8805;0.115461;0.0297341
40.965;134;134.703;-0.703001;0.0889184;-0.000566779
41.22;166;132.228;33.7718;0.110153;0.0272277
41.475;137;129.725;7.27525;0.0909091;0.00586551
41.73;155;127.223;27.7766;0.102853;0.0223943
41.985;133;124.757;8.24293;0.0882548;0.00664568
42.24;142;122.36;19.6396;0.0942269;0.015834
42.495;139;120.061;18.939;0.0922362;0.0152691
42.75;130;117.856;12.1439;0.0862641;0.00979075
43.005;146;115.733;30.2675;0.0968812;0.0244025
43.26;167;113.679;53.3211;0.110816;0.042989
43.515;153;111.687;41.3135;0.101526;0.0333081
43.77;144;109.75;34.2495;0.0955541;0.0276129
44.025;139;107.87;31.1303;0.0922362;0.0250981
44.28;137;106.046;30.9543;0.0909091;0.0249563
44.535;137;104.283;32.7174;0.0909091;0.0263777
44.79;128;102.587;25.4127;0.084937;0.0204885
45.045;115;100.968;14.0316;0.0763106;0.0113126
45.3;136;99.437;36.563;0.0902455;0.0294781
45.555;122;98.0062;23.9938;0.0809555;0.0193445
45.81;122;96.6912;25.3088;0.0809555;0.0204047
46.065;124;95.5093;28.4907;0.0822827;0.02297
46.32;128;94.4771;33.5229;0.084937;0.0270271
46.575;119;93.5887;25.4113;0.0789648;0.0204873
46.83;117;92.8262;24.1738;0.0776377;0.0194896
47.085;102;92.1734;9.82663;0.0676841;0.00792251
47.34;107;91.6151;15.3849;0.071002;0.0124038
47.595;119;91.1377;27.8623;0.0789648;0.0224633
47.85;107;90.7289;16.2711;0.071002;0.0131182
48.105;114;90.378;23.622;0.075647;0.0190448
48.36;112;90.076;21.924;0.0743198;0.0176758
48.615;98;89.8157;8.18427;0.0650299;0.00659839
48.87;137;89.5912;47.4088;0.0909091;0.0382224
49.125;116;89.3976;26.6024;0.0769741;0.0214476
49.38;93;89.232;3.76799;0.061712;0.00303786
49.635;106;89.0929;16.9071;0.0703384;0.013631
49.89;102;88.9792;13.0208;0.0676841;0.0104977
50.145;111;88.8908;22.1092;0.0736563;0.017825
50.4;108;88.8279;19.1721;0.0716656;0.0154571
50.655;113;88.7888;24.2112;0.0749834;0.0195198
50.91;117;88.7705;28.2295;0.0776377;0.0227594
51.165;119;88.7703;30.2297;0.0789648;0.024372
51.42;123;88.7806;34.2194;0.0816191;0.0275886
51.675;145;88.7872;56.2128;0.0962177;0.0453204
51.93;125;88.7758;36.2242;0.0829463;0.0292049
52.185;110;88.7352;21.2648;0.0729927;0.0171443
52.44;107;88.6568;18.3432;0.071002;0.0147888
52.695;111;88.5345;22.4655;0.0736563;0.0181123
52.95;110;88.3638;21.6362;0.0729927;0.0174438
53.205;119;88.1422;30.8578;0.0789648;0.0248785
53.46;110;87.8695;22.1305;0.0729927;0.0178422
53.715;119;87.5476;31.4524;0.0789648;0.0253578
53.97;96;87.1803;8.81971;0.0637027;0.0071107
54.225;123;86.7733;36.2267;0.0816191;0.029207
54.48;99;86.3346;12.6654;0.0656934;0.0102112
54.735;96;85.8743;10.1257;0.0637027;0.00816365
54.99;114;85.4037;28.5963;0.075647;0.0230552
55.245;101;84.9264;16.0736;0.0670206;0.012959
55.5;96;84.4405;11.5595;0.0637027;0.00931963
55.755;92;83.9458;8.05419;0.0610484;0.00649351
56.01;91;83.4442;7.55581;0.0603849;0.00609171
56.265;91;82.9385;8.06146;0.0603849;0.00649937
56.52;99;82.4319;16.5681;0.0656934;0.0133577
56.775;99;81.9282;17.0718;0.0656934;0.0137638
57.03;98;81.4328;16.5672;0.0650299;0.0133569
57.285;88;80.9487;7.05125;0.0583942;0.00568492
57.54;97;80.4763;16.5237;0.0643663;0.0133219
57.795;94;80.017;13.983;0.0623756;0.0112735
58.05;108;79.5737;28.4263;0.0716656;0.0229181
58.305;101;79.1508;21.8492;0.0670206;0.0176154
58.56;97;78.7536;18.2464;0.0643663;0.0147108
58.815;99;78.381;20.619;0.0656934;0.0166236
59.07;82;78.0272;3.97281;0.0544127;0.00320299
59.325;119;77.6875;41.3125;0.0789648;0.0333073
59.58;104;77.3589;26.6411;0.0690113;0.0214788
59.835;83;77.0399;5.96007;0.0550763;0.00480518
60.09;87;76.7288;10.2712;0.0577306;0.00828093
60.345;90;76.4218;13.5782;0.0597213;0.0109472
60.6;98;76.1162;21.8838;0.0650299;0.0176434
60.765;96;75.9186;20.0814;0.0637027;0.0161902