File: Test_XRD/01_Sample 1_XRD001/normal/01_Sample 1_XRD001_basecorr_normal.csv
4.5;169;150.607;18.393;0.0233684;0.00260206
4.77;154;152.132;1.86814;0.0212942;0.000264286
5.04;183;153.658;29.3423;0.0253042;0.00415106
5.31;186;155.182;30.8179;0.025719;0.00435981
5.58;182;156.702;25.2982;0.0251659;0.00357894
5.85;165;158.216;6.7844;0.0228153;0.00095979
6.12;165;159.721;5.27933;0.0228153;0.000746868
6.39;157;161.161;-4.16128;0.0217091;-0.000588697
6.66;205;162.406;42.5942;0.0283462;0.00602581
6.93;537;163.234;373.766;0.0742533;0.0528767
7.2;5086;163.406;4922.59;0.703263;0.696401
7.47;346;162.764;183.236;0.0478429;0.0259224
7.74;2265;161.365;2103.63;0.313191;0.297602
8.01;241;159.366;81.6345;0.0333241;0.0115488
8.28;151;157.054;-6.05424;0.0208794;-0.000856495
8.55;139;154.741;-15.7407;0.0192201;-0.00222684
8.82;170;152.625;17.3751;0.0235066;0.00245807
9.09;164;150.779;13.2206;0.022677;0.00187032
9.36;150;149.248;0.751586;0.0207412;0.000106327
9.63;170;148.056;21.9442;0.0235066;0.00310445
9.9;228;147.164;80.8356;0.0315265;0.0114358
10.17;276;146.515;129.485;0.0381637;0.0183183
10.44;203;146.058;56.9421;0.0280697;0.00805561
10.71;356;145.763;210.237;0.0492257;0.0297422
10.98;248;145.611;102.389;0.034292;0.014485
11.25;166;145.598;20.4025;0.0229535;0.00288634
11.52;154;145.732;8.26808;0.0212942;0.00116969
11.79;184;146.017;37.9827;0.0254425;0.00537342
12.06;173;146.43;26.5696;0.0239215;0.0037588
12.33;167;146.914;20.0862;0.0230918;0.0028416
12.6;215;147.398;67.6017;0.029729;0.00956363
12.87;830;147.819;682.181;0.114768;0.0965083
13.14;186;148.125;37.8746;0.025719;0.00535813
13.41;418;148.289;269.711;0.0577987;0.038156
13.68;979;148.296;830.704;0.135371;0.11752
13.95;183;148.151;34.8485;0.0253042;0.00493003
14.22;185;147.885;37.1149;0.0255808;0.00525065
14.49;274;147.511;126.489;0.0378872;0.0178944
14.76;178;147.04;30.9601;0.0246128;0.00437993
15.03;769;146.454;622.546;0.106333;0.0880717
15.3;214;145.709;68.2911;0.0295907;0.00966115
15.57;213;144.789;68.2112;0.0294524;0.00964985
15.84;494;143.698;350.302;0.0683075;0.0495573
16.11;185;142.457;42.5434;0.0255808;0.00601862
16.38;570;141.109;428.891;0.0788164;0.0606753
16.65;708;139.72;568.28;0.0978982;0.0803947
16.92;219;138.414;80.5861;0.0302821;0.0114005
17.19;222;137.368;84.6317;0.0306969;0.0119729
17.46;133;136.781;-3.78141;0.0183905;-0.000534957
17.73;177;136.826;40.1741;0.0244746;0.00568344
18;140;137.4;2.60023;0.0193584;0.000367855
18.27;1107;138.238;968.762;0.15307;0.137051
18.54;306;139.088;166.912;0.0423119;0.023613
18.81;900;139.767;760.233;0.124447;0.10755
19.08;275;140.138;134.862;0.0380254;0.0190789
19.35;173;140.111;32.8891;0.0239215;0.00465283
19.62;181;139.624;41.3764;0.0250277;0.00585353
19.89;1597;138.621;1458.38;0.220824;0.206317
20.16;363;137.066;225.934;0.0501936;0.031963
20.43;316;134.984;181.016;0.0436947;0.0256084
20.7;258;132.448;125.552;0.0356748;0.0177618
20.97;262;129.562;132.438;0.0362279;0.018736
21.24;709;126.461;582.539;0.0980365;0.0824119
21.51;816;123.313;692.687;0.112832;0.0979947
21.78;355;120.324;234.676;0.0490874;0.0331996
22.05;233;117.741;115.259;0.0322179;0.0163058
22.32;124;115.83;8.17015;0.017146;0.00115583
22.59;135;114.864;20.1364;0.018667;0.00284871
22.86;148;114.943;33.057;0.0204646;0.00467658
23.13;135;115.929;19.0711;0.018667;0.00269799
23.4;181;117.635;63.3653;0.0250277;0.0089643
23.67;138;119.876;18.1241;0.0190819;0.00256402
23.94;316;122.472;193.528;0.0436947;0.0273784
24.21;225;125.248;99.7517;0.0311117;0.0141119
24.48;365;128.043;236.957;0.0504701;0.0335223
24.75;295;130.712;164.288;0.0407909;0.0232419
25.02;337;133.141;203.859;0.0465985;0.02884
25.29;201;135.246;65.7536;0.0277931;0.00930218
25.56;244;136.962;107.038;0.0337389;0.0151427
25.83;590;138.227;451.773;0.0815819;0.0639124
26.1;168;138.996;29.0039;0.0232301;0.00410319
26.37;228;139.239;88.7612;0.0315265;0.0125571
26.64;775;138.935;636.065;0.107163;0.0899843
26.91;283;138.072;144.928;0.0391316;0.020503
27.18;217;136.664;80.3364;0.0300055;0.0113652
27.45;821;134.744;686.256;0.113523;0.0970848
27.72;419;132.371;286.629;0.0579369;0.0405495
27.99;143;129.638;13.3615;0.0197732;0.00189026
28.26;154;126.666;27.3343;0.0212942;0.00386699
28.53;169;123.577;45.4226;0.0233684;0.00642595
28.8;143;120.504;22.4961;0.0197732;0.00318253
29.07;203;117.58;85.4201;0.0280697;0.0120844
29.34;141;114.928;26.0718;0.0194967;0.00368838
29.61;126;112.663;13.3369;0.0174226;0.00188678
29.88;114;110.865;3.1355;0.0157633;0.000443579
30.15;124;109.525;14.4748;0.017146;0.00204775
30.42;245;108.585;136.415;0.0338772;0.0192987
30.69;142;107.978;34.0217;0.019635;0.00481306
30.96;125;107.648;17.3518;0.0172843;0.00245477
31.23;169;107.541;61.4587;0.0233684;0.00869458
31.5;201;107.611;93.3889;0.0277931;0.0132117
31.77;167;107.819;59.1807;0.0230918;0.00837231
32.04;186;108.133;77.8666;0.025719;0.0110158
32.31;191;108.528;82.4716;0.0264104;0.0116673
32.58;134;108.987;25.0131;0.0185288;0.00353861
32.85;112;109.498;2.50218;0.0154867;0.000353984
33.12;182;110.055;71.9454;0.0251659;0.0101781
33.39;165;110.654;54.3459;0.0228153;0.00768832
33.66;199;111.301;87.6985;0.0275166;0.0124067
33.93;120;112.01;7.99028;0.0165929;0.00113039
34.2;154;112.798;41.202;0.0212942;0.00582885
34.47;213;113.689;99.3112;0.0294524;0.0140496
34.74;162;114.709;47.2909;0.0224004;0.00669025
35.01;122;115.894;6.10617;0.0168695;0.000863842
35.28;186;117.26;68.7401;0.025719;0.00972468
35.55;228;118.748;109.252;0.0315265;0.0154559
35.82;142;120.28;21.7205;0.019635;0.0030728
36.09;207;121.785;85.2153;0.0286228;0.0120554
36.36;358;123.199;234.801;0.0495022;0.0332173
36.63;216;124.468;91.5319;0.0298673;0.012949
36.9;152;125.554;26.4461;0.0210177;0.00374133
37.17;150;126.43;23.5701;0.0207412;0.00333447
37.44;174;127.074;46.9262;0.0240597;0.00663866
37.71;161;127.47;33.5302;0.0222622;0.00474353
37.98;208;127.609;80.3913;0.0287611;0.011373
38.25;209;127.487;81.5132;0.0288993;0.0115317
38.52;169;127.108;41.892;0.0233684;0.00592647
38.79;160;126.483;33.5167;0.0221239;0.00474161
39.06;152;125.629;26.3712;0.0210177;0.00373074
39.33;153;124.566;28.4339;0.021156;0.00402255
39.6;178;123.321;54.6787;0.0246128;0.00773541
39.87;166;121.923;44.0769;0.0229535;0.00623557
40.14;183;120.404;62.596;0.0253042;0.00885547
40.41;156;118.801;37.199;0.0215708;0.00526256
40.68;208;117.154;90.8456;0.0287611;0.0128519
40.95;148;115.509;32.4909;0.0204646;0.0045965
41.22;114;113.913;0.0865388;0.0157633;1.22427e-05
41.49;195;112.377;82.6227;0.0269635;0.0116887
41.76;159;110.871;48.1293;0.0219856;0.00680886
42.03;154;109.367;44.6329;0.0212942;0.00631422
42.3;203;107.845;95.155;0.0280697;0.0134616
42.57;135;106.288;28.7122;0.018667;0.00406193
42.84;173;104.684;68.3156;0.0239215;0.00966462
43.11;130;103.028;26.9723;0.0179757;0.00381577
43.38;171;101.316;69.684;0.0236449;0.00985821
43.65;150;99.5534;50.4466;0.0207412;0.00713669
43.92;124;97.7499;26.2501;0.017146;0.0037136
44.19;124;95.9208;28.0792;0.017146;0.00397237
44.46;150;94.0851;55.9149;0.0207412;0.0079103
44.73;114;92.2656;21.7344;0.0157633;0.00307477
45;114;90.4901;23.5099;0.0157633;0.00332595
45.27;114;88.7896;25.2104;0.0157633;0.00356652
45.54;151;87.1881;63.8119;0.0208794;0.00902749
45.81;88;85.7021;2.29794;0.0121681;0.000325091
46.08;113;84.35;28.65;0.015625;0.00405313
46.35;106;83.1389;22.8611;0.0146571;0.00323416
46.62;82;82.068;-0.0680117;0.0113385;-9.62163e-06
46.89;102;81.1364;20.8636;0.014104;0.00295158
47.16;118;80.3376;37.6624;0.0163164;0.00532811
47.43;130;79.6642;50.3358;0.0179757;0.00712101
47.7;98;79.1118;18.8882;0.0135509;0.00267212
47.97;117;78.6796;38.3204;0.0161781;0.00542119
48.24;94;78.3694;15.6306;0.0129978;0.00221127
48.51;86;78.1853;7.81475;0.0118916;0.00110555
48.78;100;78.1316;21.8684;0.0138274;0.00309373
49.05;112;78.1983;33.8017;0.0154867;0.00478193
49.32;100;78.3696;21.6304;0.0138274;0.00306006
49.59;104;78.6317;25.3683;0.0143805;0.00358886
49.86;89;78.9742;10.0258;0.0123064;0.00141836
50.13;111;79.3864;31.6136;0.0153485;0.00447238
50.4;127;79.8484;47.1516;0.0175608;0.00667055
50.67;86;80.34;5.66;0.0118916;0.000800721
50.94;97;80.8423;16.1577;0.0134126;0.00228583
51.21;108;81.3331;26.6669;0.0149336;0.00377257
51.48;95;81.7917;13.2083;0.0131361;0.00186859
51.75;123;82.2003;40.7997;0.0170077;0.00577194
52.02;134;82.5441;51.4559;0.0185288;0.00727948
52.29;113;82.8118;30.1882;0.015625;0.00427074
52.56;126;82.9962;43.0038;0.0174226;0.00608375
52.83;101;83.0939;17.9061;0.0139657;0.00253318
53.1;108;83.1047;24.8953;0.0149336;0.00352194
53.37;104;83.0314;20.9686;0.0143805;0.00296643
53.64;102;82.8791;19.1209;0.014104;0.00270504
53.91;117;82.6554;34.3446;0.0161781;0.00485874
54.18;99;82.3713;16.6287;0.0136892;0.00235247
54.45;95;82.0412;12.9588;0.0131361;0.00183328
54.72;94;81.6786;12.3214;0.0129978;0.00174311
54.99;106;81.2875;24.7125;0.0146571;0.00349609
55.26;99;80.871;18.129;0.0136892;0.00256471
55.53;111;80.427;30.573;0.0153485;0.00432517
55.8;104;79.9447;24.0553;0.0143805;0.00340311
56.07;105;79.415;25.585;0.0145188;0.00361952
56.34;89;78.832;10.168;0.0123064;0.00143847
56.61;92;78.1925;13.8075;0.0127212;0.00195335
56.88;80;77.4948;2.50523;0.0110619;0.000354415
57.15;105;76.7391;28.2609;0.0145188;0.00399807
57.42;110;75.928;34.072;0.0152102;0.00482018
57.69;96;75.066;20.934;0.0132743;0.00296154
57.96;85;74.1612;10.8388;0.0117533;0.00153337
58.23;90;73.22;16.78;0.0124447;0.00237387
58.5;93;72.2421;20.7579;0.0128595;0.00293662
58.77;94;71.2287;22.7713;0.0129978;0.00322146
59.04;102;70.1834;31.8166;0.014104;0.0045011
59.31;88;69.1123;18.8877;0.0121681;0.00267205
59.58;109;68.0241;40.9759;0.0150719;0.00579688
59.85;86;66.9303;19.0697;0.0118916;0.0026978
60.12;80;65.8431;14.1569;0.0110619;0.00200278
60.39;85;64.7622;20.2378;0.0117533;0.00286305
60.66;78;63.6834;14.3166;0.0107854;0.00202537
60.765;82;63.264;18.736;0.0113385;0.00265058